FILE:	201206191006.ARPS.HHN.psa
DATE:	2012-06-19 10:53
STA:	ARPS
STLA:	-36.7699
STLO:	141.8383
SR:	200 Hz
EQLA:	-38.279
EQLO:	146.269
EQDEP:	17.2 km
EQMAG:	5.0
RHYP:	426.3 km
AZIM:	291.8 degrees
PGA:	0.972 mm/s/s
PGV:	0.095 mm/s

5% Damped Pseudo Response Spectral Acceleration (PSA) claculated
using time histories filtered using a 4th order Butterworth
bandpass between 0.1-100.0 Hz

Record Processed: 2020-10-08 21:24

-----------------------------------------------------------------
Period (s)	PSA (m/s/s)
-----------------------------------------------------------------
1.00000e-02	9.72418e-04
1.07227e-02	9.74230e-04
1.14976e-02	9.73509e-04
1.23285e-02	9.77068e-04
1.32194e-02	9.75819e-04
1.41747e-02	9.74113e-04
1.51991e-02	9.74623e-04
1.62975e-02	9.73352e-04
1.74753e-02	9.73902e-04
1.87382e-02	9.77295e-04
2.00923e-02	9.77267e-04
2.15443e-02	9.74843e-04
2.31013e-02	9.78839e-04
2.47708e-02	9.82258e-04
2.65609e-02	9.83154e-04
2.84804e-02	9.79667e-04
3.05386e-02	9.76436e-04
3.27455e-02	9.74016e-04
3.51119e-02	9.80399e-04
3.76494e-02	9.80994e-04
4.03702e-02	9.82958e-04
4.32876e-02	9.74229e-04
4.64159e-02	9.81081e-04
4.97702e-02	9.94457e-04
5.33670e-02	1.00535e-03
5.72237e-02	1.02401e-03
6.13591e-02	1.03643e-03
6.57933e-02	1.10049e-03
7.05480e-02	1.11791e-03
7.56463e-02	1.10531e-03
8.11131e-02	1.07671e-03
8.69749e-02	1.15035e-03
9.32603e-02	1.13280e-03
1.00000e-01	1.02809e-03
1.07227e-01	1.02866e-03
1.14976e-01	1.13841e-03
1.23285e-01	1.18617e-03
1.32194e-01	1.21277e-03
1.41747e-01	1.06203e-03
1.51991e-01	1.09996e-03
1.62975e-01	1.31335e-03
1.74753e-01	1.27408e-03
1.87382e-01	1.26244e-03
2.00923e-01	1.34350e-03
2.15443e-01	1.73888e-03
2.31013e-01	1.84069e-03
2.47708e-01	1.88607e-03
2.65609e-01	2.24240e-03
2.84804e-01	2.30619e-03
3.05386e-01	1.95408e-03
3.27455e-01	1.89536e-03
3.51119e-01	2.41974e-03
3.76494e-01	3.21392e-03
4.03702e-01	3.16275e-03
4.32876e-01	2.44315e-03
4.64159e-01	2.55584e-03
4.97702e-01	2.74588e-03
5.33670e-01	2.71870e-03
5.72237e-01	3.11393e-03
6.13591e-01	3.10982e-03
6.57933e-01	3.05765e-03
7.05480e-01	2.89626e-03
7.56463e-01	2.37432e-03
8.11131e-01	2.71394e-03
8.69749e-01	2.30631e-03
9.32603e-01	2.15891e-03
1.00000e+00	2.18314e-03
1.07227e+00	1.50677e-03
1.14976e+00	1.00660e-03
1.23285e+00	9.30266e-04
1.32194e+00	7.44120e-04
1.41747e+00	6.40420e-04
1.51991e+00	6.00330e-04
1.62975e+00	6.51458e-04
1.74753e+00	6.20421e-04
1.87382e+00	4.77990e-04
2.00923e+00	3.85278e-04
2.15443e+00	3.36451e-04
2.31013e+00	2.64436e-04
2.47708e+00	1.86474e-04
2.65609e+00	1.45276e-04
2.84804e+00	1.16436e-04
3.05386e+00	9.29313e-05
3.27455e+00	7.54848e-05
3.51119e+00	6.11014e-05
3.76494e+00	4.87798e-05
4.03702e+00	3.90205e-05
4.32876e+00	3.22877e-05
4.64159e+00	2.74429e-05
4.97702e+00	2.36800e-05
5.33670e+00	2.04545e-05
5.72237e+00	1.77912e-05
6.13591e+00	1.55573e-05
6.57933e+00	1.35089e-05
7.05480e+00	1.17085e-05
7.56463e+00	1.01357e-05
8.11131e+00	8.76017e-06
8.69749e+00	7.57912e-06
9.32603e+00	6.56010e-06
1.00000e+01	5.69384e-06
