FILE:	201206191005.ARPS.HHE.psa
DATE:	2012-06-19 10:53
STA:	ARPS
STLA:	-36.7699
STLO:	141.8383
SR:	200 Hz
EQLA:	-38.279
EQLO:	146.269
EQDEP:	17.2 km
EQMAG:	5.0
RHYP:	426.3 km
AZIM:	291.8 degrees
PGA:	0.868 mm/s/s
PGV:	0.078 mm/s

5% Damped Pseudo Response Spectral Acceleration (PSA) claculated
using time histories filtered using a 4th order Butterworth
bandpass between 0.1-100.0 Hz

Record Processed: 2020-10-08 21:23

-----------------------------------------------------------------
Period (s)	PSA (m/s/s)
-----------------------------------------------------------------
1.00000e-02	8.75032e-04
1.07227e-02	8.70319e-04
1.14976e-02	8.69581e-04
1.23285e-02	8.71809e-04
1.32194e-02	8.73142e-04
1.41747e-02	8.75249e-04
1.51991e-02	8.72951e-04
1.62975e-02	8.70035e-04
1.74753e-02	8.69121e-04
1.87382e-02	8.70404e-04
2.00923e-02	8.70546e-04
2.15443e-02	8.72970e-04
2.31013e-02	8.75673e-04
2.47708e-02	8.76190e-04
2.65609e-02	8.74057e-04
2.84804e-02	8.85129e-04
3.05386e-02	8.86266e-04
3.27455e-02	8.79523e-04
3.51119e-02	8.80630e-04
3.76494e-02	8.86595e-04
4.03702e-02	8.99502e-04
4.32876e-02	8.94924e-04
4.64159e-02	9.02750e-04
4.97702e-02	9.23589e-04
5.33670e-02	9.11005e-04
5.72237e-02	9.16350e-04
6.13591e-02	9.07424e-04
6.57933e-02	8.88051e-04
7.05480e-02	9.21609e-04
7.56463e-02	8.84148e-04
8.11131e-02	8.90556e-04
8.69749e-02	9.25803e-04
9.32603e-02	9.38226e-04
1.00000e-01	9.54420e-04
1.07227e-01	1.00464e-03
1.14976e-01	9.73392e-04
1.23285e-01	1.01217e-03
1.32194e-01	1.09591e-03
1.41747e-01	1.17144e-03
1.51991e-01	1.29535e-03
1.62975e-01	1.25975e-03
1.74753e-01	1.40373e-03
1.87382e-01	1.32884e-03
2.00923e-01	1.51972e-03
2.15443e-01	1.36946e-03
2.31013e-01	1.34652e-03
2.47708e-01	1.61648e-03
2.65609e-01	2.22561e-03
2.84804e-01	2.53271e-03
3.05386e-01	2.55524e-03
3.27455e-01	2.44637e-03
3.51119e-01	2.74180e-03
3.76494e-01	2.55651e-03
4.03702e-01	2.46300e-03
4.32876e-01	2.59734e-03
4.64159e-01	2.88393e-03
4.97702e-01	3.49459e-03
5.33670e-01	4.40523e-03
5.72237e-01	4.79266e-03
6.13591e-01	4.57865e-03
6.57933e-01	2.89350e-03
7.05480e-01	1.78212e-03
7.56463e-01	1.61711e-03
8.11131e-01	1.39734e-03
8.69749e-01	1.23697e-03
9.32603e-01	1.27208e-03
1.00000e+00	1.13044e-03
1.07227e+00	8.29513e-04
1.14976e+00	6.44397e-04
1.23285e+00	5.12272e-04
1.32194e+00	5.49700e-04
1.41747e+00	4.76637e-04
1.51991e+00	4.45693e-04
1.62975e+00	3.83592e-04
1.74753e+00	3.31913e-04
1.87382e+00	3.42960e-04
2.00923e+00	2.40225e-04
2.15443e+00	1.56324e-04
2.31013e+00	1.19195e-04
2.47708e+00	9.83192e-05
2.65609e+00	9.45143e-05
2.84804e+00	7.17331e-05
3.05386e+00	6.68973e-05
3.27455e+00	5.70616e-05
3.51119e+00	4.48126e-05
3.76494e+00	3.45204e-05
4.03702e+00	2.77983e-05
4.32876e+00	2.37015e-05
4.64159e+00	2.01701e-05
4.97702e+00	1.70743e-05
5.33670e+00	1.46098e-05
5.72237e+00	1.26344e-05
6.13591e+00	1.09751e-05
6.57933e+00	9.54202e-06
7.05480e+00	8.28559e-06
7.56463e+00	7.18076e-06
8.11131e+00	6.22806e-06
8.69749e+00	5.39466e-06
9.32603e+00	4.67078e-06
1.00000e+01	4.04362e-06
