FILE:	201206191053.GOGM.EHZ.psa
DATE:	2012-06-19 10:53
STA:	GOGM
STLA:	-36.887
STLO:	142.401
SR:	100 Hz
EQLA:	-38.279
EQLO:	146.269
EQDEP:	17.24 km
EQMAG:	5.0
RHYP:	374.7 km
PGA:	3.292 mm/s/s
PGV:	0.282 mm/s

5% Damped Pseudo Response Spectral Acceleration (PSA) claculated
using time histories filtered using a 4th order Butterworth
bandpass between 0.2-50.0 Hz

Record Processed: 2016-02-09 21:20

-----------------------------------------------------------------
Period (s)	PSA (m/s/s)
-----------------------------------------------------------------
2.00923e-02	3.30476e-03
2.15443e-02	3.30721e-03
2.31013e-02	3.30710e-03
2.47708e-02	3.31002e-03
2.65609e-02	3.31844e-03
2.84804e-02	3.31772e-03
3.05386e-02	3.31553e-03
3.27455e-02	3.31875e-03
3.51119e-02	3.34011e-03
3.76494e-02	3.35109e-03
4.03702e-02	3.34575e-03
4.32876e-02	3.34038e-03
4.64159e-02	3.34353e-03
4.97702e-02	3.37431e-03
5.33670e-02	3.39516e-03
5.72237e-02	3.43739e-03
6.13591e-02	3.41841e-03
6.57933e-02	3.44626e-03
7.05480e-02	3.43848e-03
7.56463e-02	3.45798e-03
8.11131e-02	3.48807e-03
8.69749e-02	3.47737e-03
9.32603e-02	3.72733e-03
1.00000e-01	3.90444e-03
1.07227e-01	3.80910e-03
1.14976e-01	3.83377e-03
1.23285e-01	3.77125e-03
1.32194e-01	3.99558e-03
1.41747e-01	4.24787e-03
1.51991e-01	4.25173e-03
1.62975e-01	4.43337e-03
1.74753e-01	4.35827e-03
1.87382e-01	4.28322e-03
2.00923e-01	4.62793e-03
2.15443e-01	5.11863e-03
2.31013e-01	5.84972e-03
2.47708e-01	6.09217e-03
2.65609e-01	6.22115e-03
2.84804e-01	6.72201e-03
3.05386e-01	8.55801e-03
3.27455e-01	1.01547e-02
3.51119e-01	8.95945e-03
3.76494e-01	1.02047e-02
4.03702e-01	1.35764e-02
4.32876e-01	1.38935e-02
4.64159e-01	1.26724e-02
4.97702e-01	1.14402e-02
5.33670e-01	1.24590e-02
5.72237e-01	1.13405e-02
6.13591e-01	1.18050e-02
6.57933e-01	7.78176e-03
7.05480e-01	5.58501e-03
7.56463e-01	5.17621e-03
8.11131e-01	5.52063e-03
8.69749e-01	4.44585e-03
9.32603e-01	4.31060e-03
1.00000e+00	3.63249e-03
1.07227e+00	2.65785e-03
1.14976e+00	2.23642e-03
1.23285e+00	1.85350e-03
1.32194e+00	1.47211e-03
1.41747e+00	1.43616e-03
1.51991e+00	1.40350e-03
1.62975e+00	1.37583e-03
1.74753e+00	1.04331e-03
1.87382e+00	8.66014e-04
2.00923e+00	7.21660e-04
2.15443e+00	5.54489e-04
2.31013e+00	4.40803e-04
2.47708e+00	3.58309e-04
2.65609e+00	3.10763e-04
2.84804e+00	2.95134e-04
3.05386e+00	2.45760e-04
3.27455e+00	1.77526e-04
3.51119e+00	1.58734e-04
3.76494e+00	1.26283e-04
4.03702e+00	1.18757e-04
4.32876e+00	9.77479e-05
4.64159e+00	9.91045e-05
4.97702e+00	9.83451e-05
