FILE:	201206191053.GOOG.EHZ.psa
DATE:	2012-06-19 10:53
STA:	GOOG
STLA:	-35.423
STLO:	149.258
SR:	100 Hz
EQLA:	-38.279
EQLO:	146.269
EQDEP:	17.24 km
EQMAG:	5.0
RHYP:	414.5 km
PGA:	1.322 mm/s/s
PGV:	0.113 mm/s

5% Damped Pseudo Response Spectral Acceleration (PSA) claculated
using time histories filtered using a 4th order Butterworth
bandpass between 0.2-50.0 Hz

Record Processed: 2016-02-09 21:21

-----------------------------------------------------------------
Period (s)	PSA (m/s/s)
-----------------------------------------------------------------
2.00923e-02	1.31936e-03
2.15443e-02	1.32681e-03
2.31013e-02	1.33790e-03
2.47708e-02	1.35439e-03
2.65609e-02	1.37618e-03
2.84804e-02	1.35788e-03
3.05386e-02	1.36601e-03
3.27455e-02	1.35236e-03
3.51119e-02	1.36449e-03
3.76494e-02	1.40844e-03
4.03702e-02	1.40834e-03
4.32876e-02	1.42235e-03
4.64159e-02	1.47429e-03
4.97702e-02	1.41278e-03
5.33670e-02	1.53597e-03
5.72237e-02	1.61751e-03
6.13591e-02	1.61802e-03
6.57933e-02	1.62687e-03
7.05480e-02	1.64963e-03
7.56463e-02	1.63402e-03
8.11131e-02	1.65437e-03
8.69749e-02	1.74776e-03
9.32603e-02	1.94245e-03
1.00000e-01	2.14885e-03
1.07227e-01	1.86975e-03
1.14976e-01	1.99433e-03
1.23285e-01	2.21245e-03
1.32194e-01	2.62398e-03
1.41747e-01	2.17241e-03
1.51991e-01	2.04000e-03
1.62975e-01	2.51175e-03
1.74753e-01	3.22507e-03
1.87382e-01	3.36663e-03
2.00923e-01	2.79684e-03
2.15443e-01	2.59028e-03
2.31013e-01	2.76495e-03
2.47708e-01	3.16082e-03
2.65609e-01	3.71299e-03
2.84804e-01	3.29126e-03
3.05386e-01	3.25781e-03
3.27455e-01	3.80532e-03
3.51119e-01	4.26660e-03
3.76494e-01	4.63805e-03
4.03702e-01	4.41417e-03
4.32876e-01	4.63450e-03
4.64159e-01	3.96023e-03
4.97702e-01	2.84753e-03
5.33670e-01	3.32520e-03
5.72237e-01	3.94105e-03
6.13591e-01	3.56060e-03
6.57933e-01	4.08379e-03
7.05480e-01	3.71311e-03
7.56463e-01	3.30729e-03
8.11131e-01	2.44706e-03
8.69749e-01	2.29819e-03
9.32603e-01	2.77918e-03
1.00000e+00	2.16720e-03
1.07227e+00	2.00523e-03
1.14976e+00	1.52517e-03
1.23285e+00	1.28306e-03
1.32194e+00	1.18207e-03
1.41747e+00	9.38720e-04
1.51991e+00	8.73702e-04
1.62975e+00	8.31472e-04
1.74753e+00	7.72718e-04
1.87382e+00	8.02124e-04
2.00923e+00	8.21345e-04
2.15443e+00	7.48551e-04
2.31013e+00	6.80085e-04
2.47708e+00	5.99651e-04
2.65609e+00	5.45321e-04
2.84804e+00	4.79369e-04
3.05386e+00	4.11374e-04
3.27455e+00	3.33331e-04
3.51119e+00	2.65563e-04
3.76494e+00	2.02269e-04
4.03702e+00	1.44573e-04
4.32876e+00	1.20651e-04
4.64159e+00	9.93631e-05
4.97702e+00	8.12393e-05
