FILE:	1995-12-25T04.43.DRS.HNZ.psa
DATE:	1995-12-25 04:43
STA:	DRS
STLA:	-12.4667
STLO:	130.8993
SR:	100 Hz
EQLA:	-6.903
EQLO:	129.151
EQDEP:	141.9 km
EQMAG:	7.1
RHYP:	663.0 km
AZIM:	NaN degrees
PGA:	68.356 mm/s/s
PGV:	3.968 mm/s

5% Damped Pseudo Response Spectral Acceleration (PSA) claculated
using time histories filtered using a 4th order Butterworth
bandpass between 0.05-50.0 Hz

Record Processed: 2017-09-29 13:32

-----------------------------------------------------------------
Period (s)	PSA (m/s/s)
-----------------------------------------------------------------
2.00923e-02	7.77206e-02
2.15443e-02	7.56538e-02
2.31013e-02	7.19944e-02
2.47708e-02	7.11996e-02
2.65609e-02	7.65027e-02
2.84804e-02	8.13555e-02
3.05386e-02	8.08818e-02
3.27455e-02	7.36312e-02
3.51119e-02	7.86211e-02
3.76494e-02	8.62680e-02
4.03702e-02	8.42446e-02
4.32876e-02	7.41384e-02
4.64159e-02	7.85672e-02
4.97702e-02	7.33225e-02
5.33670e-02	7.38336e-02
5.72237e-02	8.40422e-02
6.13591e-02	9.23580e-02
6.57933e-02	1.00254e-01
7.05480e-02	9.57596e-02
7.56463e-02	9.18680e-02
8.11131e-02	1.01889e-01
8.69749e-02	1.16939e-01
9.32603e-02	1.30026e-01
1.00000e-01	1.13249e-01
1.07227e-01	1.03318e-01
1.14976e-01	1.15356e-01
1.23285e-01	1.35130e-01
1.32194e-01	1.46424e-01
1.41747e-01	1.24311e-01
1.51991e-01	1.47736e-01
1.62975e-01	1.42883e-01
1.74753e-01	1.43921e-01
1.87382e-01	1.65956e-01
2.00923e-01	1.99085e-01
2.15443e-01	1.90501e-01
2.31013e-01	1.73896e-01
2.47708e-01	1.14405e-01
2.65609e-01	1.36747e-01
2.84804e-01	1.60788e-01
3.05386e-01	1.28781e-01
3.27455e-01	1.24000e-01
3.51119e-01	9.34556e-02
3.76494e-01	8.80352e-02
4.03702e-01	8.32853e-02
4.32876e-01	1.03576e-01
4.64159e-01	1.23851e-01
4.97702e-01	1.07897e-01
5.33670e-01	1.12823e-01
5.72237e-01	9.66644e-02
6.13591e-01	7.39208e-02
6.57933e-01	5.56827e-02
7.05480e-01	5.08894e-02
7.56463e-01	4.53665e-02
8.11131e-01	3.18569e-02
8.69749e-01	3.36277e-02
9.32603e-01	3.36232e-02
1.00000e+00	2.90647e-02
1.07227e+00	3.36587e-02
1.14976e+00	2.93126e-02
1.23285e+00	3.01359e-02
1.32194e+00	2.41235e-02
1.41747e+00	2.94382e-02
1.51991e+00	2.68753e-02
1.62975e+00	2.36472e-02
1.74753e+00	2.16507e-02
1.87382e+00	1.77514e-02
2.00923e+00	2.07046e-02
2.15443e+00	2.09230e-02
2.31013e+00	1.63319e-02
2.47708e+00	1.21773e-02
2.65609e+00	8.63655e-03
2.84804e+00	7.25956e-03
3.05386e+00	7.44949e-03
3.27455e+00	7.66263e-03
3.51119e+00	7.13940e-03
3.76494e+00	5.64969e-03
4.03702e+00	4.23015e-03
4.32876e+00	3.24179e-03
4.64159e+00	2.34025e-03
4.97702e+00	2.13534e-03
5.33670e+00	1.99509e-03
5.72237e+00	1.96982e-03
6.13591e+00	1.74546e-03
6.57933e+00	1.47702e-03
7.05480e+00	1.23647e-03
7.56463e+00	1.02565e-03
8.11131e+00	9.20039e-04
8.69749e+00	8.14604e-04
9.32603e+00	7.69948e-04
1.00000e+01	6.23344e-04
