FILE:	1995-12-25T04.43.DPH.HNE.psa
DATE:	1995-12-25 04:43
STA:	DPH
STLA:	-12.4667
STLO:	130.8423
SR:	100 Hz
EQLA:	-6.903
EQLO:	129.151
EQDEP:	141.9 km
EQMAG:	7.1
RHYP:	661.2 km
AZIM:	NaN degrees
PGA:	211.398 mm/s/s
PGV:	11.458 mm/s

5% Damped Pseudo Response Spectral Acceleration (PSA) claculated
using time histories filtered using a 4th order Butterworth
bandpass between 0.05-50.0 Hz

Record Processed: 2017-09-29 13:36

-----------------------------------------------------------------
Period (s)	PSA (m/s/s)
-----------------------------------------------------------------
2.00923e-02	2.17128e-01
2.15443e-02	2.16444e-01
2.31013e-02	2.21485e-01
2.47708e-02	2.14069e-01
2.65609e-02	2.19163e-01
2.84804e-02	2.16375e-01
3.05386e-02	2.20773e-01
3.27455e-02	2.19125e-01
3.51119e-02	2.27985e-01
3.76494e-02	2.16095e-01
4.03702e-02	2.26527e-01
4.32876e-02	2.43416e-01
4.64159e-02	2.51329e-01
4.97702e-02	2.43090e-01
5.33670e-02	2.42124e-01
5.72237e-02	2.45959e-01
6.13591e-02	2.42229e-01
6.57933e-02	2.22883e-01
7.05480e-02	2.06402e-01
7.56463e-02	2.04754e-01
8.11131e-02	2.29167e-01
8.69749e-02	2.34571e-01
9.32603e-02	2.72248e-01
1.00000e-01	3.05336e-01
1.07227e-01	3.14911e-01
1.14976e-01	3.26723e-01
1.23285e-01	3.37766e-01
1.32194e-01	3.51302e-01
1.41747e-01	3.80765e-01
1.51991e-01	3.40833e-01
1.62975e-01	3.97143e-01
1.74753e-01	4.64411e-01
1.87382e-01	4.13094e-01
2.00923e-01	4.37481e-01
2.15443e-01	4.99589e-01
2.31013e-01	4.35578e-01
2.47708e-01	3.76043e-01
2.65609e-01	4.38077e-01
2.84804e-01	5.25632e-01
3.05386e-01	5.51511e-01
3.27455e-01	6.53341e-01
3.51119e-01	7.94484e-01
3.76494e-01	8.18371e-01
4.03702e-01	6.06076e-01
4.32876e-01	5.08201e-01
4.64159e-01	5.20331e-01
4.97702e-01	4.59887e-01
5.33670e-01	4.65989e-01
5.72237e-01	4.06385e-01
6.13591e-01	2.73114e-01
6.57933e-01	2.17705e-01
7.05480e-01	1.63056e-01
7.56463e-01	1.21609e-01
8.11131e-01	1.21596e-01
8.69749e-01	1.19990e-01
9.32603e-01	1.06496e-01
1.00000e+00	1.12224e-01
1.07227e+00	1.11307e-01
1.14976e+00	1.29211e-01
1.23285e+00	9.53045e-02
1.32194e+00	5.57878e-02
1.41747e+00	4.53423e-02
1.51991e+00	4.38205e-02
1.62975e+00	4.50308e-02
1.74753e+00	4.16024e-02
1.87382e+00	3.69211e-02
2.00923e+00	3.33082e-02
2.15443e+00	3.32176e-02
2.31013e+00	2.65499e-02
2.47708e+00	2.20813e-02
2.65609e+00	1.78650e-02
2.84804e+00	1.58119e-02
3.05386e+00	1.12659e-02
3.27455e+00	8.04232e-03
3.51119e+00	7.54189e-03
3.76494e+00	8.00159e-03
4.03702e+00	7.86750e-03
4.32876e+00	6.89497e-03
4.64159e+00	5.55742e-03
4.97702e+00	4.57319e-03
5.33670e+00	3.50734e-03
5.72237e+00	2.84928e-03
6.13591e+00	2.32853e-03
6.57933e+00	1.64457e-03
7.05480e+00	1.36626e-03
7.56463e+00	1.19358e-03
8.11131e+00	1.00606e-03
8.69749e+00	8.97640e-04
9.32603e+00	7.55501e-04
1.00000e+01	5.59643e-04
