FILE:	1995-12-25T04.43.DRS.HNN.psa
DATE:	1995-12-25 04:43
STA:	DRS
STLA:	-12.4667
STLO:	130.8993
SR:	100 Hz
EQLA:	-6.903
EQLO:	129.151
EQDEP:	141.9 km
EQMAG:	7.1
RHYP:	663.0 km
AZIM:	NaN degrees
PGA:	73.188 mm/s/s
PGV:	4.718 mm/s

5% Damped Pseudo Response Spectral Acceleration (PSA) claculated
using time histories filtered using a 4th order Butterworth
bandpass between 0.05-50.0 Hz

Record Processed: 2017-09-29 13:31

-----------------------------------------------------------------
Period (s)	PSA (m/s/s)
-----------------------------------------------------------------
2.00923e-02	8.30630e-02
2.15443e-02	8.06898e-02
2.31013e-02	7.98127e-02
2.47708e-02	7.73307e-02
2.65609e-02	8.18772e-02
2.84804e-02	8.97396e-02
3.05386e-02	9.23253e-02
3.27455e-02	8.92062e-02
3.51119e-02	9.03644e-02
3.76494e-02	8.66676e-02
4.03702e-02	8.46705e-02
4.32876e-02	9.09412e-02
4.64159e-02	9.51145e-02
4.97702e-02	1.00193e-01
5.33670e-02	9.47687e-02
5.72237e-02	9.56007e-02
6.13591e-02	1.09618e-01
6.57933e-02	1.08862e-01
7.05480e-02	1.14031e-01
7.56463e-02	1.38449e-01
8.11131e-02	1.43111e-01
8.69749e-02	1.30366e-01
9.32603e-02	1.30821e-01
1.00000e-01	1.26641e-01
1.07227e-01	1.50012e-01
1.14976e-01	1.80936e-01
1.23285e-01	1.88419e-01
1.32194e-01	2.20306e-01
1.41747e-01	2.22820e-01
1.51991e-01	2.18829e-01
1.62975e-01	1.90768e-01
1.74753e-01	2.20029e-01
1.87382e-01	2.80675e-01
2.00923e-01	2.59122e-01
2.15443e-01	2.27594e-01
2.31013e-01	2.90321e-01
2.47708e-01	3.17329e-01
2.65609e-01	2.64090e-01
2.84804e-01	2.76459e-01
3.05386e-01	2.69070e-01
3.27455e-01	2.14407e-01
3.51119e-01	2.10911e-01
3.76494e-01	2.14555e-01
4.03702e-01	2.16958e-01
4.32876e-01	2.18872e-01
4.64159e-01	1.73466e-01
4.97702e-01	1.06285e-01
5.33670e-01	1.06881e-01
5.72237e-01	1.22905e-01
6.13591e-01	9.90369e-02
6.57933e-01	7.82847e-02
7.05480e-01	7.63058e-02
7.56463e-01	8.04962e-02
8.11131e-01	6.91896e-02
8.69749e-01	7.40875e-02
9.32603e-01	6.28962e-02
1.00000e+00	5.01112e-02
1.07227e+00	5.06336e-02
1.14976e+00	3.99763e-02
1.23285e+00	2.89636e-02
1.32194e+00	2.17110e-02
1.41747e+00	1.50604e-02
1.51991e+00	1.44275e-02
1.62975e+00	1.69407e-02
1.74753e+00	2.19154e-02
1.87382e+00	2.04978e-02
2.00923e+00	2.25647e-02
2.15443e+00	1.68741e-02
2.31013e+00	1.71795e-02
2.47708e+00	1.65386e-02
2.65609e+00	1.39257e-02
2.84804e+00	1.08533e-02
3.05386e+00	9.04621e-03
3.27455e+00	7.83658e-03
3.51119e+00	6.95349e-03
3.76494e+00	6.90627e-03
4.03702e+00	6.71513e-03
4.32876e+00	6.15652e-03
4.64159e+00	5.21619e-03
4.97702e+00	4.00320e-03
5.33670e+00	3.26404e-03
5.72237e+00	2.40263e-03
6.13591e+00	1.83161e-03
6.57933e+00	1.54202e-03
7.05480e+00	1.55810e-03
7.56463e+00	1.37909e-03
8.11131e+00	1.24619e-03
8.69749e+00	9.96820e-04
9.32603e+00	6.86858e-04
1.00000e+01	5.73391e-04
