FILE:	1995-12-25T04.43.DPH.HNN.psa
DATE:	1995-12-25 04:43
STA:	DPH
STLA:	-12.4667
STLO:	130.8423
SR:	100 Hz
EQLA:	-6.903
EQLO:	129.151
EQDEP:	141.9 km
EQMAG:	7.1
RHYP:	661.2 km
AZIM:	NaN degrees
PGA:	125.593 mm/s/s
PGV:	6.738 mm/s

5% Damped Pseudo Response Spectral Acceleration (PSA) claculated
using time histories filtered using a 4th order Butterworth
bandpass between 0.05-50.0 Hz

Record Processed: 2017-09-29 13:37

-----------------------------------------------------------------
Period (s)	PSA (m/s/s)
-----------------------------------------------------------------
2.00923e-02	1.25108e-01
2.15443e-02	1.23012e-01
2.31013e-02	1.27112e-01
2.47708e-02	1.25534e-01
2.65609e-02	1.26209e-01
2.84804e-02	1.30410e-01
3.05386e-02	1.38483e-01
3.27455e-02	1.37404e-01
3.51119e-02	1.31302e-01
3.76494e-02	1.37170e-01
4.03702e-02	1.41303e-01
4.32876e-02	1.39576e-01
4.64159e-02	1.31985e-01
4.97702e-02	1.28584e-01
5.33670e-02	1.37468e-01
5.72237e-02	1.38304e-01
6.13591e-02	1.41405e-01
6.57933e-02	1.48149e-01
7.05480e-02	1.53140e-01
7.56463e-02	1.59203e-01
8.11131e-02	1.49641e-01
8.69749e-02	1.58918e-01
9.32603e-02	1.63172e-01
1.00000e-01	1.74098e-01
1.07227e-01	1.78771e-01
1.14976e-01	2.40498e-01
1.23285e-01	2.74553e-01
1.32194e-01	2.56069e-01
1.41747e-01	2.67246e-01
1.51991e-01	2.44200e-01
1.62975e-01	3.47112e-01
1.74753e-01	3.39680e-01
1.87382e-01	3.38247e-01
2.00923e-01	4.16118e-01
2.15443e-01	4.27708e-01
2.31013e-01	3.53037e-01
2.47708e-01	4.16797e-01
2.65609e-01	4.31378e-01
2.84804e-01	3.27779e-01
3.05386e-01	2.53133e-01
3.27455e-01	2.16510e-01
3.51119e-01	1.90890e-01
3.76494e-01	1.70470e-01
4.03702e-01	1.78951e-01
4.32876e-01	1.53313e-01
4.64159e-01	1.55392e-01
4.97702e-01	1.80933e-01
5.33670e-01	1.83000e-01
5.72237e-01	1.69726e-01
6.13591e-01	1.29090e-01
6.57933e-01	1.02216e-01
7.05480e-01	1.10632e-01
7.56463e-01	1.06769e-01
8.11131e-01	1.13068e-01
8.69749e-01	7.61200e-02
9.32603e-01	7.01796e-02
1.00000e+00	4.78488e-02
1.07227e+00	3.49903e-02
1.14976e+00	3.81316e-02
1.23285e+00	3.70709e-02
1.32194e+00	2.40553e-02
1.41747e+00	2.29045e-02
1.51991e+00	1.92597e-02
1.62975e+00	2.00508e-02
1.74753e+00	2.08425e-02
1.87382e+00	1.92929e-02
2.00923e+00	1.74689e-02
2.15443e+00	1.66895e-02
2.31013e+00	1.45148e-02
2.47708e+00	1.40460e-02
2.65609e+00	1.09846e-02
2.84804e+00	8.67495e-03
3.05386e+00	6.79587e-03
3.27455e+00	5.60217e-03
3.51119e+00	4.74366e-03
3.76494e+00	4.50725e-03
4.03702e+00	4.28526e-03
4.32876e+00	3.83263e-03
4.64159e+00	3.46046e-03
4.97702e+00	2.68949e-03
5.33670e+00	1.83555e-03
5.72237e+00	1.21732e-03
6.13591e+00	1.01939e-03
6.57933e+00	9.36034e-04
7.05480e+00	1.07077e-03
7.56463e+00	9.23249e-04
8.11131e+00	7.80275e-04
8.69749e+00	5.96788e-04
9.32603e+00	4.46406e-04
1.00000e+01	4.16865e-04
