FILE:	201906240254.MTN.HHE.psa
DATE:	2019-06-24 02:53
STA:	MTN
STLA:	-12.8436
STLO:	131.1327
SR:	200 Hz
EQLA:	-6.389
EQLO:	129.22
EQDEP:	208.3 km
EQMAG:	7.3
RHYP:	772.7 km
AZIM:	163.8 degrees
PGA:	134.081 mm/s/s
PGV:	11.446 mm/s

5% Damped Pseudo Response Spectral Acceleration (PSA) claculated
using time histories filtered using a 4th order Butterworth
bandpass between 0.05-100.0 Hz

Record Processed: 2020-08-30 22:38

-----------------------------------------------------------------
Period (s)	PSA (m/s/s)
-----------------------------------------------------------------
1.00000e-02	1.34176e-01
1.07227e-02	1.34100e-01
1.14976e-02	1.33801e-01
1.23285e-02	1.33783e-01
1.32194e-02	1.33860e-01
1.41747e-02	1.34432e-01
1.51991e-02	1.35649e-01
1.62975e-02	1.35669e-01
1.74753e-02	1.35157e-01
1.87382e-02	1.35675e-01
2.00923e-02	1.35693e-01
2.15443e-02	1.35896e-01
2.31013e-02	1.36611e-01
2.47708e-02	1.37220e-01
2.65609e-02	1.36968e-01
2.84804e-02	1.40553e-01
3.05386e-02	1.39650e-01
3.27455e-02	1.34211e-01
3.51119e-02	1.36884e-01
3.76494e-02	1.37486e-01
4.03702e-02	1.38622e-01
4.32876e-02	1.39858e-01
4.64159e-02	1.40341e-01
4.97702e-02	1.38685e-01
5.33670e-02	1.42558e-01
5.72237e-02	1.41906e-01
6.13591e-02	1.46712e-01
6.57933e-02	1.45438e-01
7.05480e-02	1.48155e-01
7.56463e-02	1.59248e-01
8.11131e-02	1.52186e-01
8.69749e-02	1.61032e-01
9.32603e-02	1.66808e-01
1.00000e-01	1.70488e-01
1.07227e-01	1.66819e-01
1.14976e-01	1.70473e-01
1.23285e-01	1.97060e-01
1.32194e-01	1.96752e-01
1.41747e-01	1.93634e-01
1.51991e-01	1.84337e-01
1.62975e-01	1.91248e-01
1.74753e-01	2.18186e-01
1.87382e-01	2.04977e-01
2.00923e-01	2.14530e-01
2.15443e-01	2.04424e-01
2.31013e-01	2.31210e-01
2.47708e-01	2.29687e-01
2.65609e-01	2.57086e-01
2.84804e-01	2.83513e-01
3.05386e-01	2.71938e-01
3.27455e-01	2.82205e-01
3.51119e-01	2.89335e-01
3.76494e-01	3.55688e-01
4.03702e-01	5.08214e-01
4.32876e-01	6.48323e-01
4.64159e-01	6.22954e-01
4.97702e-01	6.22536e-01
5.33670e-01	5.91652e-01
5.72237e-01	4.58297e-01
6.13591e-01	2.85798e-01
6.57933e-01	1.90736e-01
7.05480e-01	1.46213e-01
7.56463e-01	1.45894e-01
8.11131e-01	1.09471e-01
8.69749e-01	1.08558e-01
9.32603e-01	1.00050e-01
1.00000e+00	7.06200e-02
1.07227e+00	6.25503e-02
1.14976e+00	5.75645e-02
1.23285e+00	6.00324e-02
1.32194e+00	5.68530e-02
1.41747e+00	5.42709e-02
1.51991e+00	6.18793e-02
1.62975e+00	6.57552e-02
1.74753e+00	5.58276e-02
1.87382e+00	3.73535e-02
2.00923e+00	2.82714e-02
2.15443e+00	2.11924e-02
2.31013e+00	2.08280e-02
2.47708e+00	2.02056e-02
2.65609e+00	1.54180e-02
2.84804e+00	1.40309e-02
3.05386e+00	1.56120e-02
3.27455e+00	1.61975e-02
3.51119e+00	1.61268e-02
3.76494e+00	1.56985e-02
4.03702e+00	1.47882e-02
4.32876e+00	1.24951e-02
4.64159e+00	1.30172e-02
4.97702e+00	1.25320e-02
5.33670e+00	1.15231e-02
5.72237e+00	1.09015e-02
6.13591e+00	9.80518e-03
6.57933e+00	8.73630e-03
7.05480e+00	7.87275e-03
7.56463e+00	7.64386e-03
8.11131e+00	7.08521e-03
8.69749e+00	6.24575e-03
9.32603e+00	5.37911e-03
1.00000e+01	4.56182e-03
