FILE:	201906240254.MTN.HHN.psa
DATE:	2019-06-24 02:53
STA:	MTN
STLA:	-12.8436
STLO:	131.1327
SR:	200 Hz
EQLA:	-6.389
EQLO:	129.22
EQDEP:	208.3 km
EQMAG:	7.3
RHYP:	772.7 km
AZIM:	163.8 degrees
PGA:	70.394 mm/s/s
PGV:	4.480 mm/s

5% Damped Pseudo Response Spectral Acceleration (PSA) claculated
using time histories filtered using a 4th order Butterworth
bandpass between 0.05-100.0 Hz

Record Processed: 2020-08-30 22:40

-----------------------------------------------------------------
Period (s)	PSA (m/s/s)
-----------------------------------------------------------------
1.00000e-02	7.07971e-02
1.07227e-02	7.01903e-02
1.14976e-02	7.06146e-02
1.23285e-02	7.15733e-02
1.32194e-02	7.11357e-02
1.41747e-02	7.06924e-02
1.51991e-02	7.05726e-02
1.62975e-02	7.20501e-02
1.74753e-02	7.26071e-02
1.87382e-02	7.18730e-02
2.00923e-02	7.24284e-02
2.15443e-02	7.36029e-02
2.31013e-02	7.31302e-02
2.47708e-02	7.45925e-02
2.65609e-02	7.78689e-02
2.84804e-02	8.67560e-02
3.05386e-02	8.79712e-02
3.27455e-02	8.35104e-02
3.51119e-02	8.10766e-02
3.76494e-02	7.75582e-02
4.03702e-02	8.59828e-02
4.32876e-02	8.98892e-02
4.64159e-02	8.63554e-02
4.97702e-02	8.58199e-02
5.33670e-02	1.10119e-01
5.72237e-02	1.33824e-01
6.13591e-02	1.30811e-01
6.57933e-02	1.09874e-01
7.05480e-02	1.11403e-01
7.56463e-02	1.14374e-01
8.11131e-02	1.22096e-01
8.69749e-02	1.26683e-01
9.32603e-02	1.42423e-01
1.00000e-01	2.01060e-01
1.07227e-01	2.03135e-01
1.14976e-01	1.97322e-01
1.23285e-01	2.18409e-01
1.32194e-01	2.09081e-01
1.41747e-01	2.04201e-01
1.51991e-01	1.58863e-01
1.62975e-01	1.63287e-01
1.74753e-01	1.76478e-01
1.87382e-01	1.79677e-01
2.00923e-01	2.14242e-01
2.15443e-01	2.03690e-01
2.31013e-01	2.41841e-01
2.47708e-01	2.18817e-01
2.65609e-01	2.10240e-01
2.84804e-01	1.96013e-01
3.05386e-01	2.08745e-01
3.27455e-01	1.95800e-01
3.51119e-01	2.50677e-01
3.76494e-01	2.85954e-01
4.03702e-01	2.58663e-01
4.32876e-01	1.76364e-01
4.64159e-01	2.06729e-01
4.97702e-01	1.75464e-01
5.33670e-01	1.39399e-01
5.72237e-01	1.45298e-01
6.13591e-01	1.03778e-01
6.57933e-01	1.14126e-01
7.05480e-01	1.00924e-01
7.56463e-01	8.74150e-02
8.11131e-01	7.12655e-02
8.69749e-01	5.73858e-02
9.32603e-01	5.61147e-02
1.00000e+00	4.58748e-02
1.07227e+00	4.09196e-02
1.14976e+00	3.49107e-02
1.23285e+00	3.60023e-02
1.32194e+00	3.53791e-02
1.41747e+00	3.30110e-02
1.51991e+00	3.22129e-02
1.62975e+00	3.01638e-02
1.74753e+00	2.23997e-02
1.87382e+00	2.60737e-02
2.00923e+00	2.40329e-02
2.15443e+00	1.84303e-02
2.31013e+00	1.52232e-02
2.47708e+00	1.02492e-02
2.65609e+00	1.00891e-02
2.84804e+00	1.09626e-02
3.05386e+00	9.77796e-03
3.27455e+00	9.26427e-03
3.51119e+00	8.88937e-03
3.76494e+00	5.34385e-03
4.03702e+00	4.24414e-03
4.32876e+00	4.25792e-03
4.64159e+00	3.97948e-03
4.97702e+00	4.39502e-03
5.33670e+00	4.61467e-03
5.72237e+00	4.27639e-03
6.13591e+00	3.76290e-03
6.57933e+00	3.34235e-03
7.05480e+00	3.09712e-03
7.56463e+00	2.95408e-03
8.11131e+00	2.39823e-03
8.69749e+00	1.82122e-03
9.32603e+00	1.60574e-03
1.00000e+01	1.37206e-03
